SLC Damping Ring Gated camera results.  10 e+ verical profiles at I=2.00mA.  
The distance beteeen each pixel on the gated camera is 1 micron.  
Pixel    Pic1(Counts) Pic2(Counts) Pic3(Counts) Pic4(Counts) Pic5(Counts) Pic6(Counts) Pic7(Counts) Pic8(Counts) Pic9(Counts) Pic10(Counts)
  1      373.13394    366.30381    361.50142    351.43167    381.38018    354.28414    378.61430    359.06892    368.38936    368.45881   
  2      379.11696    375.91517    360.08205    375.40784    371.07638    378.09181    369.37846    387.02286    381.02927    360.36782   
  3      385.54507    376.23960    386.66601    372.53036    376.55830    372.43676    364.30642    379.81000    373.72861    394.78940   
  4      400.67265    383.02464    380.94232    377.88368    381.69671    400.08503    377.22862    376.37839    386.55675    384.96331   
  5      399.44846    386.92861    403.72780    383.91476    394.14869    386.85662    384.39967    387.96324    376.45091    372.53741   
  6      386.06327    411.34829    378.38862    398.32494    401.15472    399.92525    399.20545    404.29731    389.97872    381.98329   
  7      404.92086    417.32353    408.71641    398.52700    392.11801    420.42423    403.83158    411.40607    418.99031    420.53273   
  8      415.63889    409.78374    424.68436    406.03258    400.32191    404.73855    417.59892    412.37043    411.85441    406.25334   
  9      442.10425    437.21127    412.29266    401.80766    421.23186    450.22475    417.91298    423.33101    443.17559    425.88896   
 10      438.51178    401.61700    427.14255    443.16712    434.88230    412.17964    418.06044    416.02003    439.47861    436.73793   
 11      441.47144    437.84438    425.60841    454.25949    421.45593    453.06388    446.53597    446.80254    443.84527    428.22104   
 12      460.65891    459.16063    444.88944    436.49745    432.68900    437.65793    438.64826    456.63601    453.08492    468.20735   
 13      447.44796    470.45870    440.33700    473.31037    440.37809    473.92984    474.27007    480.33028    440.05608    475.48212   
 14      458.50239    464.29206    475.28413    478.10759    451.35634    479.11161    467.98109    493.24028    459.29994    488.95357   
 15      477.54357    495.32014    471.66533    485.82310    483.60090    496.77220    445.91381    460.33907    464.07317    457.36597   
 16      489.31358    475.52150    478.68950    506.76307    484.66709    495.14603    500.16686    479.66249    498.38913    491.64934   
 17      519.79782    489.99242    507.55787    493.87779    503.74821    505.35990    519.40739    488.32771    507.22243    496.79092   
 18      498.87676    524.35293    505.91010    521.30297    517.22505    513.75723    503.27990    522.60384    479.06982    500.82921   
 19      517.52295    541.71028    513.36655    494.78399    501.35273    527.90400    531.53101    527.13325    496.15294    531.16820   
 20      520.40084    548.93076    549.12920    501.42919    554.58482    544.23206    536.87310    508.79272    513.05047    520.56942   
 21      539.02287    553.67934    531.50415    542.87967    526.37027    520.77386    545.42954    548.73203    548.19587    538.49271   
 22      531.23462    571.82945    547.53687    564.08829    565.16818    537.62551    570.20960    530.58474    584.29344    543.76605   
 23      563.60208    537.72016    547.76322    560.26071    554.87348    569.30545    523.26472    547.91622    551.34059    538.94301   
 24      576.00247    556.79087    590.27272    578.74092    572.04662    575.88887    596.92873    586.05071    584.63182    597.60498   
 25      569.62828    573.70811    558.12689    587.35261    587.56650    584.87180    577.49032    612.64420    567.96989    587.22014   
 26      615.25810    581.09210    599.44560    608.36712    585.67322    616.35308    614.98754    590.33789    595.27045    587.50422   
 27      601.70323    588.25044    615.91185    645.22171    631.43999    607.47278    595.03983    617.70484    591.22779    619.11611   
 28      592.93684    575.43872    611.57194    616.12093    630.77967    611.70630    601.69596    624.88697    642.01661    606.52361   
 29      641.45773    601.56663    668.19792    620.03751    658.16082    606.62529    630.17476    592.73462    609.11235    604.99697   
 30      651.41869    642.28090    658.49747    642.12265    628.40203    675.90601    640.14830    655.40539    663.70230    645.95574   
 31      653.68457    689.68383    656.38073    653.31416    652.82308    636.04854    666.95413    678.09308    685.26476    679.33166   
 32      644.14315    683.65461    650.57553    688.88683    654.70509    676.20566    654.63512    699.83929    660.80504    691.37414   
 33      684.10561    683.25198    690.84456    655.85686    664.57086    693.92092    705.01352    680.17223    667.79493    676.68411   
 34      690.64156    725.65576    711.18619    681.41413    712.74672    698.98343    732.70739    647.80250    712.02997    723.64966   
 35      711.68174    713.72601    694.32966    731.44764    681.73046    718.27927    689.51808    737.69093    697.27110    672.93205   
 36      709.46772    703.65195    734.20885    706.97405    742.70581    718.21787    720.36035    715.99099    735.23755    723.30768   
 37      755.45058    733.68365    754.16297    746.47615    760.95598    740.52926    725.25978    714.22305    731.59810    732.05940   
 38      735.04080    780.33796    745.69678    770.06073    734.78623    722.78072    750.08980    763.66732    727.80913    768.54877   
 39      770.21383    761.37984    753.13067    772.06471    750.34088    753.05400    749.48920    779.80289    752.38584    777.56439   
 40      751.70861    777.68421    797.75801    755.08161    767.07451    769.22931    763.86546    790.09396    795.92772    748.75444   
 41      827.66956    788.37553    815.02785    825.81380    809.65303    762.48259    781.13016    812.11033    808.76705    774.54807   
 42      803.17130    841.44705    816.36334    815.01439    805.86310    797.77888    824.57196    807.53716    846.34463    827.06268   
 43      790.05982    821.72457    866.44133    835.01535    813.45419    819.37737    813.31207    866.29504    839.97158    821.34478   
 44      841.97695    833.88647    884.09462    869.54714    819.63918    848.52480    843.88405    832.87150    804.44089    833.10595   
 45      858.59352    841.46542    868.06124    881.66833    851.41934    892.32749    846.66192    820.76463    849.84075    868.59111   
 46      873.84490    863.75620    881.61843    905.00909    837.97133    867.07855    860.86999    922.04881    873.95860    893.54408   
 47      890.40472    902.67528    847.97293    911.06089    874.21066    937.74910    870.15896    906.43905    874.74741    887.58669   
 48      887.68956    895.84245    912.72286    934.60522    900.95045    921.23264    879.21560    849.80844    885.92097    900.28775   
 49      917.87111    927.24445    909.34425    886.44044    928.40870    950.83292    927.25154    938.08265    924.71770    920.37371   
 50     1003.05419    934.70178    965.35600    995.24968    927.91606    942.33253    919.59651    933.97357    931.24841    929.61716   
 51      949.93124   1017.84109   1023.58443    950.32098    986.36612    934.48789    946.00391    972.02034    972.21247    966.00707   
 52      928.47698    987.60305   1033.16289    939.59776   1030.52907    975.14336   1003.98499    958.19205    982.23605   1018.16002   
 53      970.16753   1021.93389   1031.05980   1049.37742    999.61197   1045.58555   1042.85175   1006.29218   1020.22605   1002.31287   
 54     1038.95560   1042.92618   1047.86039   1062.58610   1014.56887   1056.44492   1052.42657   1042.98967   1056.21740   1044.31117   
 55     1051.12009   1031.02098   1017.81034   1062.63613   1032.68268   1050.13911   1091.77231   1051.90008   1066.53882   1064.88151   
 56     1041.21835   1053.24065   1100.10264   1076.43542   1038.23728   1090.07535   1033.36537   1054.96463   1104.39773   1054.06465   
 57     1080.32151   1112.81496   1079.33450   1104.38747   1089.21333   1138.11813   1129.14753   1055.36346   1108.54716   1095.09736   
 58     1073.47783   1090.72635   1152.34327   1111.00777   1131.46122   1174.72130   1087.33837   1103.65085   1117.01327   1104.02514   
 59     1116.33934   1090.73880   1205.95945   1143.92470   1111.75744   1112.21392   1083.54136   1131.16754   1149.03153   1110.34196   
 60     1163.26626   1196.90245   1192.77274   1107.36124   1157.05662   1181.15959   1177.52952   1187.54295   1130.68910   1128.58373   
 61     1146.72936   1167.32104   1172.33030   1199.33943   1190.93503   1206.53291   1188.51464   1201.18527   1173.23368   1183.84165   
 62     1229.84613   1186.02446   1183.13137   1198.83992   1229.07103   1162.49786   1221.43841   1202.19559   1263.95678   1164.57650   
 63     1166.88322   1232.12881   1249.51619   1229.36262   1233.24695   1245.26749   1204.92014   1202.66055   1211.42452   1234.64267   
 64     1216.92163   1188.59142   1265.98276   1242.14255   1175.36305   1303.25798   1226.52637   1243.94978   1245.23639   1208.92522   
 65     1262.15998   1247.51324   1319.62059   1270.03578   1216.11316   1251.58431   1260.82319   1259.10757   1200.78511   1334.33009   
 66     1220.46655   1337.19166   1338.28484   1273.99140   1324.10412   1273.31275   1235.81242   1270.69795   1245.52333   1332.78943   
 67     1353.26060   1307.47948   1324.56735   1322.76932   1232.41664   1270.14674   1301.72457   1295.50588   1325.77808   1318.34261   
 68     1397.74473   1370.07709   1315.29244   1383.00883   1290.27184   1365.46186   1323.83089   1359.26114   1355.14989   1408.25045   
 69     1351.66230   1393.84704   1344.37656   1313.08824   1387.39594   1378.09857   1385.63246   1351.97997   1340.16087   1358.46473   
 70     1435.96124   1318.57367   1351.17848   1423.16762   1319.40688   1460.89347   1391.99013   1352.98145   1425.46021   1380.20419   
 71     1369.48094   1375.45403   1403.49215   1377.36967   1399.40964   1395.80119   1472.17706   1373.95817   1397.76031   1392.48567   
 72     1423.31022   1431.75768   1417.30550   1427.31089   1389.07687   1501.84786   1487.04367   1502.48074   1526.03151   1442.81965   
 73     1466.53621   1459.05193   1521.02849   1461.97311   1383.88282   1444.56728   1428.75332   1504.65455   1444.01358   1499.92392   
 74     1451.65098   1457.07224   1476.03843   1505.82530   1542.75894   1562.40010   1512.47953   1537.44538   1436.89774   1448.05686   
 75     1491.16966   1511.33524   1543.19212   1482.77759   1537.11671   1503.64162   1448.59747   1542.38245   1494.17666   1549.96580   
 76     1514.98099   1620.64439   1526.70550   1518.84040   1528.21301   1580.68963   1549.67759   1577.29843   1531.36610   1548.18988   
 77     1582.98636   1505.84262   1587.36557   1598.47762   1613.03254   1574.06038   1616.68095   1592.41788   1563.41850   1592.52510   
 78     1667.08313   1648.78579   1635.76436   1608.87524   1559.00410   1607.13274   1697.87527   1606.90744   1704.15219   1519.19040   
 79     1618.14816   1603.56363   1700.30267   1693.16951   1601.09479   1598.12857   1578.94283   1657.52767   1676.95639   1678.23870   
 80     1661.73269   1665.44753   1681.95768   1642.72084   1637.32406   1723.91972   1671.10014   1596.07143   1739.29514   1664.34107   
 81     1748.09077   1704.71589   1693.56870   1734.79851   1692.95117   1738.04109   1660.82527   1737.84834   1651.50217   1701.67937   
 82     1762.29866   1718.98389   1766.96881   1757.92039   1750.76190   1775.03603   1710.24590   1652.50928   1725.95520   1768.11257   
 83     1766.06692   1715.57083   1730.06686   1743.51835   1828.89543   1801.51579   1731.84171   1798.98400   1773.70838   1786.21317   
 84     1836.73993   1826.57369   1823.65147   1803.74340   1777.91004   1837.57597   1783.03718   1791.28577   1750.49311   1782.91236   
 85     1860.66032   1791.27289   1851.21176   1824.68044   1869.37912   1798.61072   1872.99767   1837.23009   1781.42387   1895.13291   
 86     1943.61369   1891.52409   1817.31495   1892.76424   1888.38803   1871.91744   1873.03647   1764.47382   1796.57176   1792.32287   
 87     1839.51108   1874.52940   1959.83072   1839.46114   1966.93151   1862.27683   1812.53886   1811.33916   1860.95586   1852.08774   
 88     1950.28181   2013.94444   1891.30550   1901.71483   1889.63781   1848.78044   1983.16201   1887.44474   1937.42498   1852.13046   
 89     1941.28726   1880.36718   1929.24833   1941.03727   1890.06532   2019.55840   1902.61406   1908.56255   1912.90712   1967.22809   
 90     1978.22943   1999.75018   2006.30166   1963.91543   2051.37681   2011.54534   1880.75127   1975.40928   2001.10149   1945.38965   
 91     2030.83576   1996.00692   2017.10733   2041.11481   2026.84004   2060.53920   2040.71056   2091.92364   2040.75713   2064.21728   
 92     2056.53238   2025.75011   2009.63289   2057.92548   2028.86738   2005.36728   2047.46515   2061.97789   2056.48419   2023.73232   
 93     2091.51205   2152.76997   2145.26407   2086.68915   2135.31992   2133.03986   2091.42071   2060.12632   2143.12335   2098.19823   
 94     2089.90678   2181.44987   2129.64711   2126.60418   2125.88179   2054.75857   2178.91456   2181.81791   2118.35085   2141.75200   
 95     2198.07756   2180.68236   2063.45424   2186.91069   2118.87953   2222.88098   2148.23539   2163.23870   2178.73336   2170.49244   
 96     2143.75773   2179.02781   2204.67319   2276.40620   2163.96892   2228.99776   2249.69618   2088.71288   2208.52852   2135.40646   
 97     2181.65291   2280.29392   2313.36876   2154.60502   2247.81976   2169.27068   2241.33423   2189.98073   2260.20351   2287.04016   
 98     2224.90702   2207.69532   2297.46165   2221.76564   2192.17043   2228.00034   2270.71307   2226.68109   2243.51595   2228.60847   
 99     2239.03776   2312.23697   2317.72753   2364.54013   2285.04580   2271.86974   2320.81306   2365.58877   2275.23334   2353.43643   
100     2270.88355   2355.38954   2381.04901   2322.15540   2257.50035   2433.08807   2392.57687   2291.96187   2317.79858   2285.05453   
101     2361.72653   2481.26229   2464.86775   2397.41744   2481.97468   2465.72746   2375.92012   2373.53517   2432.93690   2303.93733   
102     2382.48367   2364.78623   2391.72429   2423.08753   2354.34073   2363.67763   2398.27424   2364.79585   2467.48417   2478.17758   
103     2453.62174   2563.61234   2461.80047   2397.53311   2403.02725   2415.34885   2456.68612   2406.78479   2451.24770   2400.50255   
104     2473.43672   2553.96560   2527.66838   2501.81237   2487.61946   2416.00053   2504.94940   2523.49342   2513.34219   2487.04807   
105     2566.00448   2440.77066   2585.86211   2622.59903   2530.12505   2446.11474   2538.88748   2520.59346   2579.77868   2557.80772   
106     2543.33901   2590.29956   2586.49950   2629.16187   2563.61195   2591.11592   2503.13099   2556.56030   2591.47203   2574.88513   
107     2645.29142   2647.62374   2698.53126   2638.41632   2586.25826   2584.30060   2511.16746   2574.27716   2759.62750   2641.53054   
108     2663.28049   2605.34133   2651.97430   2568.89053   2611.48475   2651.72251   2671.63615   2668.52843   2664.15968   2668.74956   
109     2611.04586   2743.27323   2771.01082   2820.29982   2633.29969   2625.10029   2662.71938   2696.19799   2725.67730   2585.92161   
110     2712.47293   2696.61469   2792.26387   2752.05131   2829.38894   2730.14832   2748.90632   2857.60137   2743.19844   2675.03677   
111     2793.58929   2671.93569   2832.12741   2792.62830   2829.78032   2712.83996   2857.21416   2896.05483   2708.49142   2765.68307   
112     2764.69680   2920.06417   2706.49487   2781.05615   2753.12018   2813.46556   2886.40252   2899.11146   2818.15615   2798.63544   
113     2759.80757   2870.98097   2817.67713   2837.90621   2860.33062   2938.13975   2803.61148   2804.55106   2950.45552   2868.65532   
114     2825.07185   2862.69673   2871.74805   3018.44058   2830.40472   2923.42212   2902.17122   2891.86960   2968.10406   2825.27511   
115     3007.83641   2934.82064   3013.91519   2863.85112   2961.82450   2937.38903   2871.39484   3046.67960   2962.48682   2870.99535   
116     3018.45162   2936.89316   2958.68370   2999.53082   2923.60815   3021.24108   2963.60892   2972.61791   2956.23720   2953.99112   
117     3124.85103   3171.85843   2989.41819   3149.97625   2985.13525   3141.53785   3018.62004   3116.41984   2996.57756   3018.24459   
118     2977.27788   2940.52300   3009.27893   3097.72849   3055.43849   3053.53747   3029.00405   3062.94574   3136.88533   3121.48741   
119     3025.19011   3169.42195   3083.79662   3193.42865   3061.58697   3143.03723   3071.34558   3185.02192   3050.67522   3150.60894   
120     3179.95745   3307.69217   3120.35431   3054.27570   3171.63118   3176.23477   3114.64524   3157.52757   3219.30484   3189.41478   
121     3283.91454   3127.07417   3250.06118   3264.45816   3153.39430   3202.79719   3221.21430   3271.77932   3218.97014   3139.91213   
122     3236.99100   3242.31488   3219.46348   3217.99974   3232.29926   3156.25559   3294.81745   3316.53741   3322.36088   3269.22793   
123     3316.83053   3284.73341   3242.83763   3337.63267   3334.58755   3293.41360   3219.49030   3270.08184   3347.78935   3271.59513   
124     3371.73238   3351.85416   3260.93716   3333.93744   3380.63575   3247.87768   3274.84655   3298.02491   3342.39394   3513.59729   
125     3309.56898   3447.03496   3353.58995   3448.53646   3445.62441   3475.43823   3404.26454   3471.12025   3405.65585   3406.26799   
126     3493.95610   3495.35454   3454.43991   3340.92920   3540.75351   3404.26306   3486.30167   3514.65284   3396.91547   3419.55420   
127     3476.63252   3575.65588   3592.94344   3445.03157   3416.45071   3556.86922   3472.85372   3549.81082   3592.50084   3523.92281   
128     3403.64262   3547.77885   3587.93345   3578.59831   3554.29223   3461.68363   3505.63516   3463.49291   3598.73724   3410.63825   
129     3571.53966   3610.79807   3655.53510   3568.99910   3499.79707   3516.15583   3532.88864   3590.76327   3587.92440   3653.57774   
130     3667.44570   3646.49331   3698.31115   3633.90287   3631.70023   3782.59713   3590.03644   3745.39103   3583.26923   3597.29795   
131     3740.37044   3675.52379   3742.20789   3760.50389   3623.31298   3657.24770   3825.49842   3719.93069   3735.93562   3646.78585   
132     3705.82218   3591.91727   3771.91373   3752.94109   3800.87885   3852.81423   3728.65184   3768.54553   3811.59212   3795.38225   
133     3846.48836   3774.05311   3783.47299   3865.10499   3741.24781   3682.95873   3735.57046   3764.12801   3759.36807   3747.96936   
134     3856.65687   3950.05403   3733.80842   3882.12106   3850.27276   3890.95265   3878.32943   3801.75822   3794.43319   3837.96580   
135     3798.17587   3946.86364   3799.14882   3887.01621   3877.79370   3881.11620   3875.28653   3827.57315   3865.48600   4019.68238   
136     4001.13305   3902.28390   4055.50188   3886.01724   3768.93718   3937.90130   4006.87238   3824.05841   3908.28440   3938.07384   
137     4045.74373   3944.93274   4095.00379   4115.31030   3914.17493   3923.38649   3903.31152   3985.88186   4053.31878   4092.72985   
138     3982.69679   4033.34505   4089.50219   4001.07300   4008.99229   4102.19222   4016.10412   4087.75270   3945.97253   4039.55122   
139     3910.40394   4127.38434   3991.05757   4117.28390   4009.40688   3973.93681   4157.86984   4021.44989   4067.51413   3958.55805   
140     4020.90166   4280.62807   4148.60186   4118.01990   4062.76290   4163.02869   4306.60657   4011.97274   4126.74406   4154.28004   
141     4322.15517   4229.68679   4253.25894   4237.95351   4254.34749   4167.47827   4142.40529   4068.51283   4079.07698   4269.10130   
