SLC Damping Ring Gated camera results.  10 e+ verical profiles at I=1.50mA.  
The distance beteeen each pixel on the gated camera is 1 micron.  
Pixel    Pic1(Counts) Pic2(Counts) Pic3(Counts) Pic4(Counts) Pic5(Counts) Pic6(Counts) Pic7(Counts) Pic8(Counts) Pic9(Counts) Pic10(Counts)
  1      124.94525    111.63066    111.89430    121.89425    110.31444    113.40741    113.20829    112.73905    114.19281    112.32870   
  2      122.32509    112.45232    116.92217    123.45965    124.55231    110.81580    115.13099    114.89195    116.14784    114.58807   
  3      116.21620    113.64482    114.03499    113.47315    120.04463    111.99444    113.85265    110.74949    122.44277    117.97972   
  4      117.17350    124.25032    121.00775    117.82732    121.82333    111.71305    122.90754    119.21415    121.23730    121.95939   
  5      112.62098    119.56173    112.97700    119.79406    122.33522    116.93539    124.75441    118.64552    115.93255    112.87433   
  6      124.97562    122.17653    114.59365    115.39883    116.37338    111.22186    111.86718    117.05642    115.78589    111.07959   
  7      112.93073    125.07709    122.05528    114.20616    122.08753    120.26068    117.35284    121.28400    116.62555    111.76175   
  8      119.83570    116.94440    116.37224    124.29924    115.95129    113.07455    112.94761    124.38084    117.58222    110.70114   
  9      121.33260    114.86998    117.15542    124.06222    116.84887    123.66788    110.51274    121.30315    115.59772    115.90945   
 10      121.41831    114.41657    120.81668    119.11349    114.84205    121.82703    117.57012    115.47048    123.88303    112.51407   
 11      125.03224    116.80057    111.18927    122.95393    122.26425    112.36468    112.89796    124.63970    112.74259    120.34231   
 12      117.71245    115.18894    123.68003    120.72403    117.00329    121.42083    115.17571    120.32182    119.67742    119.89755   
 13      114.11112    116.48407    118.37789    123.52599    111.42684    115.77117    118.59493    114.43002    125.28782    112.20186   
 14      119.04460    118.18250    114.97450    117.33273    124.05709    118.27992    116.26675    120.31866    114.63699    122.98281   
 15      124.42724    125.05145    114.72817    123.76007    110.78212    122.64603    121.60675    113.62253    119.18803    124.63850   
 16      121.76064    112.88408    123.17343    111.48627    117.03097    125.07705    114.68237    118.59654    124.38655    118.02911   
 17      117.60580    122.71355    123.36520    111.92127    117.43827    120.37085    111.12968    125.61839    114.29000    122.42965   
 18      120.81277    112.42899    123.53177    116.30555    111.50041    115.87548    118.15165    114.88163    114.32923    113.45818   
 19      121.62608    118.86065    122.77981    114.58049    120.81169    115.52830    119.20515    114.99945    122.07743    112.39990   
 20      118.43700    114.37165    117.50771    123.15012    116.22700    122.71356    125.50592    117.23649    122.55918    114.15072   
 21      112.52443    111.58718    119.98665    122.89917    124.44950    118.52841    121.57267    117.49611    115.31004    115.13372   
 22      124.13483    114.84669    118.37035    125.44384    113.52379    112.13773    113.25153    120.29496    111.93578    120.37299   
 23      117.93825    114.28875    114.79878    113.19686    125.59455    124.54766    113.63995    122.92360    114.21574    114.80753   
 24      114.56638    118.05710    112.15177    124.29755    121.21000    117.48921    113.09463    124.54281    120.01755    115.14576   
 25      111.89077    123.77663    116.94774    126.02258    112.45642    120.68564    112.73497    123.34520    114.27004    116.44462   
 26      112.90598    119.46278    120.33133    113.07114    125.15106    120.16496    113.16012    117.08251    113.00318    125.61022   
 27      118.83347    112.89244    125.70161    118.41522    116.61253    124.46764    117.12661    111.40873    117.45936    122.80414   
 28      118.79697    121.78018    117.23328    124.28859    118.91970    118.21944    118.63309    111.97048    114.44659    124.95785   
 29      123.45339    113.99613    126.27060    126.64271    113.34906    122.08957    113.48457    115.28345    114.68479    119.32103   
 30      117.50980    125.93630    119.54990    120.00090    113.40376    114.67024    126.02109    125.29458    119.16768    125.89359   
 31      118.40327    123.08333    114.75961    114.36732    126.89750    115.74309    126.17323    112.77667    112.80401    121.81937   
 32      115.14212    117.37447    121.36352    120.63560    116.35187    123.42875    116.13344    114.33551    116.74167    115.30343   
 33      127.32148    125.51398    112.46764    119.78657    126.17635    125.06093    124.34770    126.75157    114.14985    119.23678   
 34      125.77769    126.06693    119.61381    124.90630    123.49936    113.87892    119.79192    127.00107    120.93264    127.13037   
 35      120.87997    119.18889    120.02238    114.48277    125.26765    114.46778    122.98637    116.04721    126.58774    118.90555   
 36      127.82608    122.21655    115.59948    123.85649    119.10216    125.43473    125.69639    120.52755    118.81126    124.83100   
 37      125.30047    118.64656    114.53075    121.18439    115.17740    119.76869    120.78617    127.73289    123.52140    116.68070   
 38      116.73289    118.03264    119.40338    120.27014    126.11971    116.00210    125.91915    120.30634    121.82272    124.67394   
 39      122.05828    125.94467    120.44160    123.65276    123.31919    116.47402    120.63775    118.14351    124.77939    127.76933   
 40      127.63451    115.94717    123.99587    114.96169    115.47604    123.16683    128.59819    126.04008    116.04900    127.07946   
 41      117.06886    128.66458    114.47044    118.20335    124.77110    123.80102    114.86539    114.84100    121.51626    122.33652   
 42      127.68767    116.24314    127.30790    125.22803    125.87101    121.50763    119.72635    119.75599    127.64811    117.94876   
 43      117.06067    122.67748    128.57391    116.55408    123.55928    127.43255    120.73570    120.03298    122.28739    126.08099   
 44      130.05164    125.88044    121.42352    116.79600    124.82680    116.46671    121.42717    124.24603    122.17215    115.86091   
 45      117.16609    119.73031    118.87536    116.18787    124.60461    116.26460    117.04604    122.65739    119.77129    119.80493   
 46      125.19523    129.35596    117.91558    122.40210    124.40537    121.68661    129.58029    121.38442    118.85610    125.81301   
 47      120.51483    121.85496    117.70267    130.71646    117.66025    115.19095    130.68977    115.78284    126.19338    116.35874   
 48      124.39042    124.01915    128.57055    119.18645    118.07626    129.32245    118.73031    124.52385    118.93281    118.22943   
 49      130.22359    123.33540    127.28948    127.26091    126.25795    121.81471    126.35605    123.80377    119.54913    125.25570   
 50      126.95288    128.52331    129.68271    119.43580    129.52435    119.95236    125.85962    124.77753    119.08849    126.68618   
 51      131.45645    119.74588    118.37227    132.31600    130.20237    128.35203    120.33122    120.60131    119.06162    132.30529   
 52      118.57269    127.95803    125.84699    118.02688    119.22411    123.38804    124.24406    125.32815    130.44503    122.88816   
 53      129.31488    126.28193    128.72599    123.60293    127.92110    130.64613    132.18790    126.84020    131.26255    126.76814   
 54      121.93078    123.91675    122.67820    128.16569    120.54261    124.43035    119.42837    128.72214    126.03268    129.37133   
 55      133.30433    132.51799    122.22786    123.25469    130.84084    133.09665    121.36405    137.54112    127.75750    120.53970   
 56      130.10055    125.32454    121.08835    123.97092    132.61926    131.01513    126.04300    124.63463    132.09922    124.06539   
 57      137.48962    130.95992    136.40824    123.66948    130.77279    125.97932    124.80233    136.41941    131.91057    130.72831   
 58      124.92549    133.06648    137.54095    129.56487    128.03964    130.06685    123.14377    126.75664    129.89525    135.05267   
 59      130.05210    132.25496    130.92000    123.42098    138.59208    124.83963    131.10645    134.74755    129.66930    124.11977   
 60      130.05695    132.48242    124.50091    139.66890    135.09928    125.78344    129.61887    132.69057    129.54156    132.70371   
 61      131.28435    139.38271    135.88433    137.86196    139.20398    128.05221    133.35824    124.47950    126.80784    128.46653   
 62      128.87252    125.37960    138.87382    130.63758    131.62563    135.93178    134.86115    136.73071    131.64335    132.72685   
 63      137.23846    130.35084    133.29723    130.90753    133.46164    133.62456    134.69577    127.96613    136.73915    137.36298   
 64      138.18396    132.09239    142.27300    135.96139    135.62816    140.71151    132.95731    142.98311    134.68273    136.80608   
 65      136.43605    137.03527    130.49650    136.99376    127.53337    146.12137    143.17406    132.27224    145.58573    140.53991   
 66      144.92126    136.82588    141.85157    135.09515    136.44768    138.34191    144.99083    142.90524    143.11477    136.76279   
 67      138.48710    143.41768    130.31098    135.86634    138.15417    136.10548    134.34846    142.23654    138.61749    142.19624   
 68      133.63966    139.63721    142.90552    131.54000    137.22156    135.03802    144.30838    147.29087    141.09669    133.58502   
 69      146.69483    141.41343    141.49956    135.79242    144.76391    134.30664    133.56966    140.03357    140.51601    134.26411   
 70      148.87227    143.02611    149.74066    139.72729    142.72571    138.04785    138.73067    146.19145    141.57664    149.35349   
 71      149.29410    145.86707    145.47374    145.26512    142.50383    142.52011    143.40460    140.89026    147.62618    139.56663   
 72      143.62141    145.97610    141.88308    147.03423    141.36815    149.27406    142.69738    152.04491    145.25984    151.02051   
 73      139.10654    155.52826    154.23843    144.45805    143.42876    142.74134    145.87072    150.73243    149.85781    150.02292   
 74      149.16873    148.44136    144.67270    143.91498    158.27413    147.51743    153.30976    140.87114    152.35785    151.20511   
 75      147.43284    149.47220    155.16831    151.75808    155.32304    151.60937    146.59918    142.64786    142.19819    149.36882   
 76      161.65729    154.48122    152.60200    148.62262    163.91811    157.60095    160.68535    148.38317    157.84089    151.26417   
 77      150.57873    147.03650    152.51785    157.66270    157.54257    152.13606    157.01184    160.25849    150.45837    151.37519   
 78      154.82618    156.78324    164.01964    160.47646    148.14868    158.81081    151.68151    153.24242    153.74016    160.22823   
 79      159.08861    165.45809    155.81897    159.41599    157.54455    168.72582    154.46983    160.69246    164.51751    167.69982   
 80      158.22007    174.94138    156.76766    155.83895    163.00065    166.26652    161.25451    168.91113    157.75644    160.56587   
 81      163.70044    172.04086    170.62743    155.60222    159.36280    153.96295    172.07797    164.12580    172.64051    170.20356   
 82      167.10700    160.34664    163.01567    167.49587    168.43339    159.25621    173.82455    167.27403    173.03637    180.35790   
 83      168.72039    171.29074    157.22080    168.84697    167.96972    182.67678    165.37027    159.23801    165.12759    174.24914   
 84      167.66641    177.92495    173.74642    164.99991    171.39299    170.64913    161.58649    164.45136    170.57150    170.13508   
 85      166.72864    177.42916    177.00540    181.12431    167.16681    164.99588    172.23759    183.09706    161.68154    172.22964   
 86      184.78089    183.88360    176.75477    178.00863    184.29410    181.18148    180.70496    169.56677    180.74541    195.05026   
 87      187.80546    187.67050    186.84373    195.36867    181.89449    192.21800    190.72481    184.94788    174.16523    183.21074   
 88      187.74620    183.24745    173.84144    188.11565    185.29726    186.94006    185.40803    187.25294    172.58703    191.29640   
 89      203.08250    188.64681    187.84999    199.10092    194.83285    180.73672    187.80953    187.98558    195.06829    188.24494   
 90      197.92371    185.85540    209.11172    191.38068    191.85529    197.23728    200.31482    185.98095    193.49921    195.56340   
 91      208.96140    198.64635    201.06177    192.85002    213.04813    186.29867    196.21302    192.20073    197.40859    190.18419   
 92      191.34703    199.89546    198.67925    194.74413    200.54310    194.35762    190.70820    204.43141    185.87969    202.72917   
 93      224.47190    216.63098    199.08595    206.95436    197.31118    200.95457    217.72635    196.94121    205.91708    210.83881   
 94      200.57935    204.15190    225.24422    219.48265    214.75754    214.44421    207.54590    199.98238    207.83465    217.90627   
 95      208.26113    207.63669    216.67875    221.63344    223.16937    220.10726    230.13753    211.45547    215.04954    232.31977   
 96      225.63626    214.11967    216.28119    219.02628    225.50338    212.42583    224.88059    229.83214    222.39950    213.70230   
 97      219.63130    224.08324    208.35471    232.86983    219.58643    216.16301    233.78841    228.58498    228.57003    230.38421   
 98      240.05096    237.61011    231.03299    221.37081    244.88635    220.29666    220.98132    228.93772    221.73952    230.17050   
 99      221.21065    239.34635    232.54085    240.63849    242.50107    257.02706    252.80823    241.95006    237.00107    224.95675   
100      232.95221    264.45973    238.65085    261.11022    223.39697    238.56078    234.80310    229.37807    236.65226    246.17074   
101      266.80555    254.25839    272.89668    250.66701    251.69296    245.62747    266.57549    257.38942    230.05521    238.11469   
102      260.09757    244.47967    250.20508    250.89447    252.03032    266.92906    256.85095    270.76676    249.55113    250.76870   
103      292.70085    268.74054    272.18181    271.44948    258.21273    258.90952    254.78465    256.67839    260.43280    257.35370   
104      266.69631    286.35044    273.69444    255.48488    260.98047    273.29610    285.33759    278.79682    277.26465    271.04917   
105      283.73517    267.28978    283.73610    291.34985    280.42406    275.42739    270.70154    281.50292    264.59404    269.81756   
106      292.94863    276.29317    302.91683    307.85166    284.35301    260.29634    298.40768    298.73028    281.69115    300.73322   
107      291.07714    325.65507    301.96784    301.48678    332.57540    282.33566    326.64628    291.85457    317.66435    293.84379   
108      290.73218    305.70260    284.58818    302.08044    309.63341    313.50251    333.42686    292.99447    298.53850    313.78264   
109      314.19157    327.80374    331.53415    302.01161    301.05416    353.34472    319.15077    320.15831    310.98839    319.58604   
110      342.61585    319.35224    306.51686    317.71430    329.17347    346.03751    326.53983    327.49419    334.00196    315.84588   
111      333.59271    360.61919    311.06105    350.86700    324.22336    339.38087    334.32288    346.42600    330.07864    357.17058   
112      346.02208    342.90008    372.85764    364.41991    363.28246    344.92337    332.11744    359.63636    342.70313    349.93189   
113      371.33574    335.97190    357.46208    337.55660    359.61955    353.61755    370.59262    352.36048    354.19832    359.28373   
114      376.31904    363.34477    366.75091    361.69935    372.33159    376.57383    370.93825    365.66241    353.88854    364.41859   
115      372.37600    390.95256    409.12274    369.10391    365.58140    354.24939    364.72450    383.82141    409.33959    368.17455   
116      388.17793    396.72304    396.72434    383.32555    404.21738    396.96935    368.13775    382.74403    400.73430    361.90781   
117      400.62929    380.14167    389.77754    407.89113    415.59726    383.93432    408.06527    406.92022    440.64534    407.58925   
118      408.27106    393.74867    415.34700    407.73776    431.24603    429.55156    407.91343    407.45456    415.06398    403.93514   
119      413.42471    449.85164    464.79530    405.29898    440.98663    407.14406    476.04972    410.22238    423.04523    423.14952   
120      438.63671    446.50068    455.11600    438.13323    419.45460    416.30250    442.44874    436.45496    466.04048    426.28852   
121      470.36643    454.39771    466.37065    455.20786    455.66576    469.15305    439.68168    466.29037    445.00017    439.16194   
122      518.32715    474.74333    464.47872    511.85834    459.36527    479.21309    473.58272    502.78791    505.11130    472.39022   
123      478.39787    465.48372    489.82028    453.65533    478.98491    459.27184    465.96711    505.55819    495.90443    462.33325   
124      516.98430    524.94725    530.89899    519.15531    539.73336    489.94799    481.94482    488.68751    502.50732    524.56158   
125      546.63061    535.42681    551.85188    488.88711    482.65498    522.18339    527.29159    507.30388    532.08827    514.08536   
126      546.43898    544.99726    556.18791    520.95019    575.91794    588.68907    566.15989    511.57109    558.71530    537.26874   
127      575.38940    549.51527    574.56175    540.24158    538.89102    560.10699    538.34217    589.85853    563.31424    541.07600   
128      545.75816    549.05151    582.56324    592.53646    618.96554    606.95170    550.31121    614.51827    597.50067    591.68275   
129      578.46065    557.84167    579.05760    594.90486    588.07976    593.43372    539.50701    603.01738    565.97979    608.26668   
130      584.76824    647.47580    621.33843    601.43779    620.76883    596.53826    642.27380    596.89928    618.76436    601.47641   
131      607.55048    647.79003    627.34566    624.90282    636.35587    618.72893    589.60191    616.26163    637.79064    630.62400   
132      627.13330    633.60007    639.61840    611.40873    590.91409    625.00109    685.04862    690.90882    695.57635    663.03665   
133      643.19410    682.56735    671.49669    677.31954    645.06104    671.65471    691.45260    645.78778    684.14328    689.20354   
134      710.73967    689.70680    688.78281    655.74449    689.42751    662.68056    729.69713    675.88790    734.77176    683.36508   
135      692.95051    715.59323    694.61219    790.12581    737.79184    743.73074    701.82305    699.67750    712.01439    738.49325   
136      802.39699    751.02914    711.97905    762.08074    738.86949    749.09502    671.40004    793.16331    686.04644    728.06931   
137      764.18578    789.60702    778.89139    708.03802    736.05437    764.90668    769.15095    791.13060    804.57542    740.60014   
138      773.66638    785.91033    825.81358    788.87969    838.40819    767.40375    772.79508    789.27450    810.82259    798.53556   
139      790.09371    812.83816    877.63867    874.97912    784.97182    880.17554    791.04744    860.90490    778.87697    731.44300   
140      796.31946    775.54189    857.92126    810.00689    832.70989    861.78609    830.88522    884.18878    805.69526    774.50205   
141      895.01510    861.53869    884.25858    862.98950    862.02402    842.90350    890.97883    813.24750    806.91500    898.72922   
