SLC Damping Ring Gated camera results.  10 e+ verical profiles at I=1.25mA.  
The distance beteeen each pixel on the gated camera is 1 micron.  
Pixel    Pic1(Counts) Pic2(Counts) Pic3(Counts) Pic4(Counts) Pic5(Counts) Pic6(Counts) Pic7(Counts) Pic8(Counts) Pic9(Counts) Pic10(Counts)
  1      113.97727    124.91581    120.16799    117.29636    121.93216    123.94060    121.49263    116.43497    120.94621    119.28694   
  2      115.69440    121.51323    110.43396    123.81183    110.82904    110.85402    121.60649    113.03827    123.27271    115.06682   
  3      120.05394    120.49619    118.85329    117.71080    121.24438    115.51023    117.51352    114.63239    118.06956    118.94153   
  4      113.32024    115.75221    123.19233    114.55895    116.06095    120.07068    114.48612    116.14869    117.88147    112.30396   
  5      119.28806    112.72829    124.30220    121.85112    121.51694    116.64433    115.32915    114.08335    117.92336    111.46949   
  6      123.27951    111.82156    124.43281    112.17981    115.07039    110.43960    111.13854    124.73796    110.22083    118.34329   
  7      113.82785    116.18758    113.50619    115.28967    124.34905    111.75697    111.05960    119.08199    121.46813    122.00783   
  8      111.90575    116.94741    122.59370    112.78815    121.57658    123.53092    123.92225    111.11882    113.68126    112.79074   
  9      112.86715    111.74079    122.15753    115.75696    113.80655    118.73749    122.92425    112.58988    114.10323    112.77472   
 10      117.40385    120.05065    124.84489    123.58885    119.57051    114.95546    115.14186    114.79093    121.93029    117.41152   
 11      120.08246    124.66344    118.46465    120.68057    119.05909    110.16720    124.34418    123.87968    120.72391    112.19238   
 12      110.72104    117.54509    114.74620    112.36451    117.53392    121.85319    112.31634    114.65967    118.54372    119.82133   
 13      113.32849    113.39637    119.98042    111.29456    113.71613    117.51895    122.09761    112.11913    120.94301    123.49794   
 14      113.25408    115.13286    118.65917    116.62352    112.84160    113.47517    110.61731    124.39044    115.52849    121.31943   
 15      113.76459    112.69168    122.46579    112.79196    115.32069    114.23530    110.71341    121.31580    116.14349    122.95488   
 16      120.72316    114.35840    115.83304    121.12902    122.02577    121.61142    121.40146    111.97205    113.85138    122.90576   
 17      123.38479    110.99281    121.25157    123.59457    124.36727    113.56988    121.49479    116.96586    122.09501    112.54139   
 18      113.80353    112.73167    116.42792    117.40051    120.71782    111.15508    124.28849    118.74041    110.81493    122.47632   
 19      113.81675    111.13239    116.90381    120.44370    119.80185    119.22062    117.94732    118.27907    124.10934    123.96060   
 20      116.51293    110.34975    118.01786    119.15232    111.85848    119.34869    113.93502    113.50085    117.34862    115.52614   
 21      121.60912    121.68319    123.02639    121.39959    121.89054    111.21184    120.10448    112.81915    116.20919    113.55611   
 22      111.09220    118.51178    124.48916    115.35944    112.55564    122.31407    115.81220    111.92303    120.36756    115.98036   
 23      114.62916    124.11190    111.14601    112.43085    110.49488    117.45144    123.86836    114.08952    119.12687    115.39861   
 24      114.40249    111.40605    121.27206    116.43152    120.09273    122.15686    123.63336    113.50491    118.45659    121.47842   
 25      118.65456    114.65122    121.00202    114.80805    123.33628    116.75644    117.55742    116.47735    120.83643    121.71964   
 26      112.87229    114.55320    120.38492    124.15049    114.67323    119.26393    118.06130    116.38581    118.34031    116.05349   
 27      123.75581    120.25244    124.36373    116.92469    121.33875    123.53253    121.47908    119.11313    114.81074    119.83676   
 28      112.10302    117.07658    122.24607    123.49409    120.92167    116.77574    114.80538    117.17598    113.95421    112.42388   
 29      120.31911    119.45037    116.48542    112.17298    124.82040    122.07891    123.57197    114.37629    125.18379    120.54138   
 30      116.36414    122.38841    110.35713    117.37608    123.82742    118.35906    124.62310    122.95252    123.76654    112.33013   
 31      114.23180    122.42961    115.78745    122.45998    122.54284    115.76092    124.95489    120.66891    120.18134    111.89887   
 32      110.41094    113.24640    112.53307    124.04408    113.17678    117.28067    119.69342    116.59044    122.98039    113.92224   
 33      111.13252    115.91617    113.24678    111.23922    112.44600    123.94869    124.43911    121.96134    113.66658    114.52073   
 34      114.27849    119.66036    121.89682    116.55423    121.31913    118.52618    119.61184    124.62286    123.73379    115.40965   
 35      121.78540    124.50477    113.41182    123.43460    115.27134    116.63822    119.04241    122.15651    115.50243    112.45779   
 36      120.32881    118.18944    115.56201    119.87703    110.83210    117.17929    123.42745    114.37468    115.47118    115.87494   
 37      124.79200    115.93088    117.41306    119.20105    111.71268    124.85026    123.81202    118.97479    117.56295    110.54227   
 38      113.15673    118.11395    117.34886    111.03506    121.63090    125.20079    124.47957    113.29743    112.87657    119.98063   
 39      120.82934    121.96684    115.35817    123.04027    119.43597    119.51858    123.83777    123.97946    118.12707    114.41935   
 40      115.95555    119.23862    123.45285    122.16600    113.87846    116.28492    117.33410    122.33801    118.16596    113.56056   
 41      117.33084    125.47069    121.12207    120.89119    113.07481    119.57135    121.66280    111.61756    111.65658    115.80863   
 42      112.51552    117.49975    111.38326    116.33508    115.08616    114.26951    114.97600    118.64349    124.78899    122.78119   
 43      112.73253    118.11687    120.00124    115.02704    116.60608    116.20964    111.49011    116.99400    114.64235    118.41372   
 44      119.53044    117.78010    111.74078    112.00606    117.58621    124.76930    116.57136    123.89175    114.19568    118.64898   
 45      123.57747    120.01416    122.49969    120.44664    122.11536    117.82493    118.59677    119.21197    120.73071    119.08703   
 46      117.89790    124.19651    116.32448    111.42814    119.72329    124.03984    116.42641    120.06352    121.70057    123.61053   
 47      112.55362    114.73788    116.93925    119.91282    111.86985    111.15682    116.74011    119.45679    121.56871    115.94522   
 48      113.34216    120.96653    113.77128    113.96449    111.11396    113.42284    121.83412    113.52054    114.40383    121.16350   
 49      122.11169    117.61355    121.60708    115.37700    125.56152    112.51836    115.58649    123.19230    121.98559    115.38504   
 50      125.17721    112.78304    119.28334    113.78757    112.86605    112.99144    124.27150    114.61626    120.65542    121.30694   
 51      111.77716    115.66636    125.15881    121.21888    125.38961    119.89737    121.18410    124.93409    122.53195    121.94504   
 52      122.31155    117.30490    112.17811    116.96423    123.32294    116.55935    117.65946    125.61788    117.93332    117.88910   
 53      115.37446    126.33039    125.33925    124.07680    117.10043    117.74097    124.32380    114.45887    113.69905    116.91524   
 54      123.63014    120.93615    113.51432    124.12039    116.07168    118.06607    122.58550    116.40083    111.91823    122.95707   
 55      118.40717    115.80683    117.17867    120.98617    119.18065    116.04201    112.51339    125.51939    115.50535    124.16458   
 56      122.52873    120.28706    124.26340    116.54929    119.33651    121.13523    118.24416    126.34839    115.03686    116.94023   
 57      124.54416    122.50084    113.38679    116.36143    117.59632    121.03587    116.51110    125.00946    113.74275    122.93117   
 58      126.78902    115.45451    120.93630    120.51662    123.42678    111.97523    114.16357    122.77533    119.83657    118.96710   
 59      119.86998    127.49406    114.62498    126.77210    126.35718    123.36311    115.67370    127.02450    121.04354    113.79515   
 60      125.02189    120.85238    112.71046    118.50702    123.05430    125.75255    111.76569    115.64622    114.21754    115.19192   
 61      115.26418    115.45753    126.61049    122.51496    120.46418    121.49060    117.98750    124.91428    116.68336    121.11664   
 62      119.71683    120.07587    123.34898    125.62299    120.60519    121.31951    125.31179    119.56759    119.41021    126.46981   
 63      116.89099    124.13347    116.60456    117.37136    121.98765    116.08888    124.44786    122.98136    118.63955    125.45517   
 64      113.94461    127.13264    124.80308    115.74432    119.74669    125.44956    127.43787    116.63978    115.27854    113.64895   
 65      127.94443    123.04032    118.55452    117.45311    121.88308    126.42020    117.81310    115.13439    123.15213    118.60899   
 66      120.82545    114.34358    121.99313    116.24640    125.63541    118.30713    115.90258    127.59266    119.10857    127.07356   
 67      122.05052    118.64835    122.85721    118.25057    116.07167    123.75550    125.65829    113.53629    128.44699    125.60895   
 68      127.43858    119.07917    123.34716    123.58452    125.67329    116.42159    116.96866    119.07783    127.90469    115.96897   
 69      115.41535    125.32339    115.99100    115.58981    122.26290    115.57658    126.34058    122.73875    128.08368    125.22992   
 70      121.79454    126.95269    123.78774    131.21621    117.29826    125.59528    127.20616    127.57049    119.20223    118.35104   
 71      122.02705    122.32461    120.43300    120.76223    117.54115    129.21891    121.84988    128.97209    114.76390    124.93772   
 72      121.37114    129.07652    124.45011    122.77813    126.86480    127.80028    126.08881    123.37289    122.54675    127.19280   
 73      122.10243    118.85230    130.28454    117.29853    126.09748    128.52804    122.87094    123.87785    125.31898    127.53548   
 74      129.17838    126.01267    128.80552    133.09275    119.96385    126.86989    127.19966    130.22016    123.74626    117.59081   
 75      130.36355    126.48672    125.26440    123.97554    123.21115    128.52557    120.73808    118.74618    127.74504    120.36715   
 76      123.30831    125.92251    128.93807    122.64691    126.44139    133.35460    121.71054    129.47676    122.83916    122.57087   
 77      129.56958    120.71844    124.39959    121.86338    129.40580    120.77178    126.86280    130.78086    131.91371    127.52719   
 78      129.98567    134.33918    133.49541    120.96197    124.06599    125.82783    121.03562    120.13946    120.00056    136.18637   
 79      122.90197    124.91606    123.47745    130.95110    131.15098    120.45506    129.50183    136.20928    122.80304    127.30562   
 80      130.16472    129.21985    127.34514    133.72432    123.55875    125.92167    126.64194    121.85350    126.04477    133.75297   
 81      124.16308    124.40257    135.12476    134.80017    125.72814    129.32251    123.41868    122.95798    125.69340    135.65132   
 82      130.45159    133.96911    126.59121    129.05402    133.88660    127.00257    134.38251    133.45510    126.06723    125.15355   
 83      136.31745    126.83434    133.64758    124.15670    129.39796    130.14987    135.38183    128.66578    133.59042    133.56753   
 84      130.27853    133.03890    130.20719    127.45553    131.27318    124.24003    125.12410    133.84079    135.37405    127.26414   
 85      133.24445    140.80415    141.68731    128.29112    131.87967    139.32102    125.95130    132.78654    133.16039    137.06213   
 86      127.46355    128.70627    135.28017    139.09446    124.34793    132.49362    137.33365    127.49864    137.33851    123.61508   
 87      143.57001    142.74650    132.95026    132.93815    137.73238    129.98727    137.14421    128.17749    134.33152    129.95048   
 88      133.78564    135.53081    141.97635    131.26378    136.69442    139.60562    125.86102    133.33242    144.14841    132.96191   
 89      132.98368    139.26323    132.55642    127.79236    138.86839    143.82732    130.85823    140.20646    145.11153    141.00056   
 90      141.77671    149.05755    134.77018    134.14075    136.21869    141.82550    151.60880    142.73087    134.15811    131.01458   
 91      136.27281    130.59330    136.91352    131.03358    141.00411    146.54073    138.44202    150.75752    143.38636    137.61368   
 92      141.85233    146.73215    147.48738    139.61634    137.28677    138.66485    142.56308    153.66368    141.17555    143.40006   
 93      145.19208    150.80226    149.15864    147.24246    142.63972    151.80463    147.78721    144.09090    138.02037    148.01388   
 94      144.81452    146.04119    149.11232    140.54882    143.17653    138.32676    145.53863    142.57338    143.58611    142.15969   
 95      143.08625    146.38454    154.90986    145.85650    150.98119    145.31296    154.79400    145.81472    142.89524    145.46991   
 96      139.62149    147.51423    146.62410    140.83919    146.81949    153.35483    139.70725    162.76125    154.49053    155.97514   
 97      152.33487    151.90402    149.00406    156.89494    139.96630    164.27595    149.95603    148.98744    146.35851    155.11340   
 98      159.71437    160.87372    149.64740    138.47915    152.60669    154.69197    137.71106    155.13335    152.65655    141.67195   
 99      151.80915    164.31549    154.75060    153.16866    164.73989    159.51902    158.77637    157.68979    158.71919    161.65563   
100      162.40881    169.59880    159.19215    153.93765    160.10427    165.69839    152.15837    156.99515    152.26207    166.97868   
101      158.63314    148.20345    145.01030    156.77730    162.12029    169.89022    160.95933    170.33474    157.29640    154.69126   
102      153.88978    161.35234    157.25484    162.14619    151.27277    151.29508    144.65644    172.88970    163.58069    155.29017   
103      162.59139    178.91996    165.89914    167.60152    162.42231    162.93620    169.90839    165.45117    166.59090    164.10319   
104      163.45993    178.56787    183.69654    167.46936    158.62989    162.04141    167.83185    170.80459    158.82364    166.68582   
105      173.84409    172.81099    174.42534    166.39694    157.01824    174.70600    155.23166    185.16246    165.69810    168.81190   
106      163.27549    164.95276    180.30416    159.31039    183.76019    180.48922    179.19777    162.72293    173.76634    178.43030   
107      186.88138    166.41386    198.28998    182.69256    185.33339    173.83655    176.78151    164.30888    185.57436    163.47292   
108      185.03506    172.48754    195.21331    199.86809    181.37780    169.23244    191.69505    179.58612    171.50101    186.73564   
109      188.80365    181.40081    170.13387    188.74690    194.96180    193.93756    177.34906    179.98340    168.47138    187.79972   
110      187.50133    190.87412    199.36454    189.65525    194.99975    186.18730    196.19887    180.90190    167.20290    190.94478   
111      197.15691    200.26995    181.53432    199.72272    184.42881    196.61813    190.77813    188.63678    189.34123    195.79471   
112      206.41341    188.22985    198.10002    196.59778    209.91091    196.46499    198.12804    222.94760    186.47094    192.39572   
113      201.70106    213.63713    212.11767    196.61389    204.41236    205.24851    204.53918    205.87442    197.06561    191.93989   
114      220.24307    196.31789    212.95855    213.49681    214.80218    197.29156    207.58521    211.40717    200.29891    223.33251   
115      216.18918    219.90687    210.44289    218.66224    240.17986    242.45347    213.74209    199.07001    203.12912    224.09491   
116      211.82930    197.00333    204.54077    241.10982    199.13155    225.92282    226.25913    195.66552    217.16606    210.35640   
117      231.88785    243.88416    209.33487    225.97639    224.51645    216.65698    219.46511    204.96292    245.54142    232.32387   
118      225.29195    214.09193    231.87031    239.54127    241.07198    243.74544    228.73505    219.79534    208.50376    233.14922   
119      254.51860    228.74257    256.20318    228.23243    234.52355    218.37561    239.30765    231.71442    221.91253    240.47038   
120      221.53978    221.53011    233.98963    235.75778    253.73705    247.25055    216.52010    240.62853    221.75679    240.03348   
121      271.56629    245.21577    226.54818    245.64204    250.00031    230.99725    234.09807    239.07968    271.09426    232.63065   
122      256.54032    248.91042    267.46067    243.10077    260.37119    243.83121    264.97843    254.34833    255.35432    252.73306   
123      300.39605    242.67823    266.55087    237.31072    281.75015    283.85243    261.60996    257.55210    245.18707    287.71837   
124      284.65353    281.69511    254.48452    290.76235    269.00167    275.50468    283.87225    247.63508    274.86720    277.93520   
125      314.32395    310.28254    274.73647    274.60598    303.30016    311.85963    274.23551    255.17896    281.79962    271.60864   
126      304.26005    284.75967    293.28018    280.65440    273.43269    272.02319    287.93239    279.47842    326.59317    312.56118   
127      278.09420    288.98790    271.08695    292.51846    284.79733    308.16273    329.94664    306.14517    311.82118    312.96337   
128      294.64767    289.96817    280.23320    320.08826    333.11463    329.84434    305.01421    287.69230    298.70181    294.79770   
129      335.13248    358.19072    312.51400    337.30854    314.58019    310.14261    323.85958    300.43876    336.07182    299.43891   
130      317.74759    319.80096    332.91375    313.47639    317.50483    287.81007    330.34716    335.34228    302.72233    306.26063   
131      321.95403    371.53022    347.18096    306.57563    328.51988    337.00996    315.29033    304.89446    328.81975    329.17757   
132      326.56637    345.66031    379.97969    333.19465    337.40990    337.02278    350.12786    335.26531    345.66704    340.58067   
133      385.58567    405.61425    344.75882    354.34905    374.89975    371.52208    330.86978    328.64655    370.06101    375.91374   
134      352.84988    389.81095    344.25464    406.96127    345.88223    371.39819    388.67741    391.77338    342.09619    341.38953   
135      377.59002    387.57139    387.19347    347.75896    372.19421    399.06129    411.65428    370.91891    398.66391    387.14833   
136      392.53561    378.65401    381.08778    359.22322    366.80281    391.31631    442.67817    405.50956    433.44618    427.21347   
137      411.05317    442.48941    378.16564    425.95510    387.24595    445.06901    410.15622    380.43406    425.32937    430.44129   
138      451.11020    439.21046    435.84397    432.85438    454.01796    484.22605    428.43214    400.63724    443.76077    422.66251   
139      431.52486    406.59146    409.19312    486.86233    445.86520    387.47979    472.44877    507.09257    469.13879    491.39908   
140      503.54550    462.19104    448.67067    396.79362    460.01996    490.09644    416.87201    428.75638    418.95991    438.74564   
141      451.78331    518.55393    413.74464    514.55400    541.64021    468.04224    436.98629    470.68895    499.10477    480.50213   
