SLC Damping Ring Gated camera results.  10 e+ verical profiles at I=1.75mA.  
The distance beteeen each pixel on the gated camera is 1 micron.  
Pixel    Pic1(Counts) Pic2(Counts) Pic3(Counts) Pic4(Counts) Pic5(Counts) Pic6(Counts) Pic7(Counts) Pic8(Counts) Pic9(Counts) Pic10(Counts)
  1      186.58425    179.92585    190.23179    176.94996    184.41756    184.75342    183.39768    182.77933    188.46362    181.20236   
  2      182.07671    182.68295    176.39816    184.73696    180.98321    191.67991    181.79660    188.19082    175.53542    192.45244   
  3      187.69802    187.86760    186.15074    195.04561    193.48296    193.35863    179.96813    182.99218    189.06661    191.96016   
  4      188.61570    188.99591    198.17635    188.45097    188.09270    187.22419    189.08051    187.30799    190.69617    192.85458   
  5      187.68245    195.58189    202.31561    185.20556    204.15168    203.40842    187.75981    199.67776    190.65661    192.38574   
  6      200.09390    204.33171    202.55964    202.68083    201.79984    197.00988    193.45041    195.52812    198.87280    192.09919   
  7      198.54545    196.47795    193.92433    204.08963    197.82431    195.47059    204.16919    206.94224    208.64703    209.05718   
  8      197.08061    200.96202    188.87511    205.85511    197.68683    205.51022    211.86422    201.05377    202.14043    203.24924   
  9      207.58126    200.05678    204.13445    202.98448    211.94027    206.00163    205.42442    211.30917    205.07250    200.57992   
 10      216.94198    203.76698    199.75490    214.25224    198.24058    201.50023    208.36847    204.48989    203.44759    204.31293   
 11      224.98497    203.21589    210.38300    212.10808    205.83215    204.93804    210.77566    210.96759    217.64984    218.63429   
 12      214.00171    214.01564    219.02716    212.10641    211.81804    207.82289    208.34660    226.17470    218.67390    204.90437   
 13      208.52033    216.98320    222.42920    213.58232    218.89795    203.18016    209.64098    219.70486    212.86130    227.98456   
 14      219.80617    216.35058    221.83929    211.74374    216.71724    229.00592    228.78328    215.46217    226.87808    215.68990   
 15      223.60411    227.08549    223.97123    229.69545    216.12028    225.16224    232.11699    237.08212    219.97747    235.80663   
 16      230.28834    231.98713    238.62599    219.16443    230.07186    222.73553    245.03749    220.67302    221.71206    210.85563   
 17      234.17272    230.37222    245.64618    227.11351    230.48193    227.62405    224.48406    226.48519    232.53127    230.54047   
 18      246.79944    240.60070    233.30363    225.07919    250.07285    242.31764    251.75865    221.06687    244.70869    237.27011   
 19      240.56037    233.57859    244.31952    242.83602    239.16486    245.48732    240.96054    242.24808    249.84661    247.78775   
 20      240.81063    247.70752    242.92748    234.29707    249.39260    265.97235    264.28723    245.25791    248.74031    243.88622   
 21      260.86105    253.70688    238.23150    256.75730    247.51425    253.46108    248.53345    262.58566    261.11206    247.50058   
 22      257.52798    250.44046    240.77041    242.37807    252.66418    267.08561    250.41666    252.26158    245.87418    246.65888   
 23      260.93355    273.98590    253.64620    254.66481    263.25504    254.44543    263.29202    269.73664    258.53248    256.27311   
 24      268.35522    250.86569    247.86743    255.67627    256.00301    272.76602    262.72796    260.05866    245.03327    262.24049   
 25      271.00687    278.24351    269.70299    255.13467    267.84924    269.76655    281.18077    268.15972    268.58696    275.44028   
 26      271.44794    263.83824    295.76243    283.13037    274.10274    285.54768    292.27275    269.81011    271.72824    268.66849   
 27      289.94563    269.48893    279.85188    257.91402    290.77013    273.91280    264.67755    279.18633    289.09769    279.31164   
 28      300.21920    284.64221    294.59984    281.32949    291.31325    279.67277    273.76560    289.13249    292.35090    284.57707   
 29      299.54747    303.34381    295.69883    296.75393    300.84694    285.70462    296.22330    285.84589    308.82801    282.91583   
 30      285.37933    285.81015    282.96430    298.20089    277.16590    304.56655    296.18368    307.31579    280.95920    305.34037   
 31      287.40247    283.80075    309.37394    298.60121    296.14477    294.71821    310.68417    304.12804    315.75344    317.97230   
 32      302.65601    311.56604    306.86030    306.82025    334.44221    307.43015    302.23676    309.22190    313.62094    321.34984   
 33      296.15728    313.05873    329.11419    309.35650    317.72311    301.91255    292.91415    310.20744    323.77639    320.99782   
 34      303.80862    318.56655    307.79125    316.15605    302.13206    327.04090    316.42839    310.41851    330.11511    319.71128   
 35      328.43680    315.29054    333.90877    329.93528    333.78171    347.10394    328.97405    337.24940    314.67152    330.70792   
 36      336.65163    326.43555    335.00201    323.95500    322.83645    336.71275    319.04764    337.77075    337.00555    317.68280   
 37      343.79557    356.54608    329.98564    324.86049    329.49331    335.74800    339.45275    336.99252    335.79471    347.39605   
 38      329.96160    338.65717    360.33683    340.88401    343.47961    367.71885    337.46979    355.54739    332.10019    366.32074   
 39      366.67294    366.86312    363.21356    370.67719    373.72723    353.62094    351.19004    351.28430    377.91331    363.21009   
 40      353.03940    383.01275    350.01950    365.54277    359.21972    356.75651    355.57039    378.49961    358.14973    350.42465   
 41      362.55207    381.22301    360.82477    372.14205    364.97936    369.90853    368.09871    379.75108    348.47367    361.77104   
 42      375.10826    379.02978    371.17851    382.79290    396.36162    406.93019    357.19506    378.64553    374.87422    388.43043   
 43      380.79688    368.32913    376.48092    382.04615    382.56467    394.89646    386.81637    388.87949    394.11939    392.52824   
 44      379.66952    388.44487    385.01275    383.34780    385.67515    413.07088    421.73187    391.30448    405.14380    385.84207   
 45      386.71075    389.56393    387.99733    414.23129    394.13809    409.97277    383.21882    420.61426    402.58684    427.93329   
 46      418.89452    414.39857    423.30842    419.60556    421.26622    409.15777    412.00943    403.33911    419.28747    419.49083   
 47      422.42205    417.67800    432.86611    417.91871    430.88020    414.07731    411.72194    405.35759    406.85423    427.04195   
 48      403.94032    450.03341    432.75626    432.46778    451.94274    417.14648    417.53760    455.39545    406.41853    462.16930   
 49      452.81485    459.38920    446.04201    409.96419    439.12816    446.82885    413.59160    425.41405    446.56090    456.73506   
 50      439.01809    445.65974    476.51464    437.99630    424.85917    441.79368    424.38383    454.01239    414.46956    460.42841   
 51      448.65555    464.24269    457.56096    471.93876    475.90100    460.88734    484.50641    453.26419    471.11119    468.85949   
 52      456.27172    460.73235    470.74150    478.97737    486.37219    456.41193    454.06880    478.29223    469.06278    489.12150   
 53      455.31723    484.75229    473.70844    477.87465    467.20610    484.11421    506.33065    495.56628    482.94962    508.68373   
 54      458.05419    509.75897    490.93494    491.60152    474.70482    483.62631    461.85268    487.01467    493.62238    484.18025   
 55      503.01441    494.48528    522.82501    480.14799    511.37027    519.73028    511.27762    501.38801    509.68014    490.16394   
 56      518.82754    506.75049    516.34144    520.41380    491.90211    532.44419    506.53755    507.67315    553.20349    512.56793   
 57      538.75483    495.06234    565.48976    552.29685    538.27422    538.95010    516.94672    528.58032    524.19849    539.76607   
 58      566.33771    559.97610    553.88706    536.99468    548.57997    538.64937    528.05714    528.36563    515.09163    543.32494   
 59      587.29955    529.50758    542.08212    593.68056    527.30690    554.31971    546.45104    557.37295    539.53497    546.26426   
 60      562.61552    563.45891    587.75685    556.93554    533.12839    614.49065    557.09674    575.97003    551.23387    546.85267   
 61      553.75972    591.03174    561.93988    572.30230    562.04331    567.93366    585.51563    581.89016    542.99995    553.96120   
 62      621.98388    562.33982    579.91243    630.92314    585.47996    588.62109    589.74573    588.78007    593.53424    609.69589   
 63      619.14108    587.29758    589.14292    612.50849    562.82728    617.85256    567.69557    583.16097    596.33852    651.85950   
 64      581.78905    611.52178    638.82403    640.42094    631.66631    601.28323    583.38240    609.90226    614.44126    649.18937   
 65      599.81106    606.74279    626.47366    641.46475    626.82142    658.16172    631.08538    586.37565    616.40809    638.79489   
 66      666.05967    653.33331    633.38060    623.83885    672.49897    642.34252    626.21736    628.87351    671.81141    656.93700   
 67      654.69712    652.67382    686.26116    655.82779    678.84212    693.13716    646.46274    664.40648    658.21748    633.40002   
 68      669.32411    714.69819    684.10246    647.73845    676.60189    665.03634    706.79777    663.03769    720.78933    635.03066   
 69      688.53085    678.06676    688.40786    690.70719    679.27010    701.88196    662.76904    686.00710    637.40999    650.50812   
 70      714.73215    694.23821    746.08731    664.37427    661.84310    742.31331    683.85297    723.19841    716.94441    711.28695   
 71      749.00880    697.45699    711.47374    743.61628    716.41730    685.58247    690.83800    726.35336    702.16493    759.77179   
 72      767.28524    775.20462    741.30913    750.12476    781.08004    726.13981    715.60869    724.13445    747.93534    695.85603   
 73      744.11119    750.22569    779.55645    759.98634    739.96973    743.48869    736.01864    741.91762    742.15503    728.16670   
 74      789.78830    728.14257    777.02246    731.88469    818.34390    769.72801    818.10121    780.43043    754.18605    776.58622   
 75      826.63636    757.92571    787.52323    800.00991    808.98171    828.25025    781.03275    814.57729    764.74409    782.19519   
 76      826.84022    822.21738    761.42524    846.54267    840.68731    783.79642    803.83542    816.98121    768.55518    791.39240   
 77      830.92452    794.72383    807.62925    799.68731    804.99691    835.76591    790.61285    793.99908    790.77909    811.06469   
 78      886.39342    887.31228    825.17839    821.39895    796.31869    835.51640    885.46063    797.37046    841.51331    825.06788   
 79      916.71845    889.47897    838.60949    846.14825    886.08072    824.94931    859.23251    847.70526    889.30636    866.37857   
 80      816.06558    865.00040    871.89940    899.40187    884.46520    904.56762    908.15715    861.42053    906.63587    903.95222   
 81      882.13515    875.58784    905.94274    910.25314    880.51378    959.64030    928.49517    886.28969    908.06370    906.76694   
 82      945.50744    905.13469    928.52964    942.96505    928.55452    892.30229    926.02202    916.84817    950.15263    969.34457   
 83      953.10919    920.86063    935.55370    970.88421    936.73442    969.12665    947.00425    905.42508    974.01912    898.90393   
 84      993.41148    984.27004    958.88830    971.52549    941.95897    981.54235    968.18150    941.98369    972.98626    938.16385   
 85     1006.15276    987.34926   1021.15760   1021.24766   1011.70860   1000.74266   1004.53688   1015.17792   1001.24791    990.81046   
 86     1028.12311    977.57107    971.11618    988.03285    994.55123   1040.29063   1019.26362   1052.90839    983.52361   1065.03925   
 87     1040.77823   1068.43832   1006.07221   1035.28662   1055.05032   1047.93237   1058.13164   1048.98907   1073.29107   1029.97624   
 88     1046.82300   1068.12613   1064.64786   1080.16518   1013.58963   1067.14770   1054.46745   1081.28118   1099.00574   1086.21137   
 89     1014.79532   1036.77170   1125.54759   1080.54023   1058.40127   1039.66729   1028.08071   1068.32782   1044.10982   1123.93258   
 90     1049.65874   1104.78056   1073.43818   1069.15724   1153.03354   1083.72320   1140.34478   1053.04913   1102.04868   1130.05484   
 91     1092.71829   1136.73924   1079.50206   1109.27968   1112.96873   1114.83621   1102.29866   1104.93929   1069.02001   1098.25258   
 92     1142.45120   1124.00470   1187.04274   1128.42706   1148.62749   1198.57130   1134.93207   1156.98371   1112.39891   1162.07204   
 93     1222.82046   1185.02653   1189.98721   1152.51817   1147.79403   1187.72707   1193.96342   1194.34660   1121.32779   1170.36449   
 94     1155.95019   1168.95954   1220.26391   1180.14954   1213.30592   1134.71003   1182.31121   1159.72646   1200.62673   1139.99347   
 95     1232.10815   1203.56425   1182.56693   1209.26425   1176.75444   1221.19874   1185.53683   1234.50879   1219.95975   1183.62320   
 96     1236.19740   1251.84143   1267.67407   1269.19179   1167.34829   1269.12318   1228.96998   1313.87131   1233.27229   1270.92444   
 97     1270.15122   1231.45631   1242.72272   1295.65505   1344.10396   1329.46446   1322.51151   1304.14253   1264.41923   1245.45481   
 98     1316.56618   1355.45214   1326.16697   1279.32147   1317.62285   1220.97062   1360.64610   1268.88159   1291.52616   1303.66123   
 99     1265.70689   1292.50355   1314.58552   1329.00086   1301.85624   1249.28946   1308.80170   1355.14813   1345.63387   1351.49603   
100     1381.99134   1336.58971   1394.66545   1339.66772   1351.11792   1338.77437   1373.17738   1346.47008   1310.86792   1392.93837   
101     1322.53747   1344.46506   1349.65422   1444.58805   1329.11108   1381.59795   1430.47699   1329.94053   1338.76623   1367.88195   
102     1462.22702   1398.66139   1458.30222   1435.54972   1405.22144   1441.98475   1411.53485   1378.00736   1461.35302   1350.87045   
103     1488.04729   1409.31151   1483.33620   1481.75180   1505.12139   1452.95991   1389.04692   1512.35171   1446.83693   1488.37633   
104     1439.38253   1429.37210   1460.09924   1533.89402   1437.31145   1517.66800   1489.52690   1431.17749   1461.04641   1494.05328   
105     1411.80541   1465.80222   1562.55653   1447.02249   1506.88371   1525.62424   1530.39857   1437.30933   1584.65474   1491.95601   
106     1496.70903   1477.34410   1539.90042   1512.69540   1536.20206   1488.58124   1479.00910   1545.73830   1455.31348   1604.69877   
107     1561.97715   1500.15522   1516.29796   1582.74514   1595.69864   1526.82630   1518.25493   1584.76706   1543.27320   1586.13717   
108     1618.80461   1552.01282   1546.25573   1645.57338   1622.92407   1560.04501   1629.04309   1637.90058   1612.01340   1535.54935   
109     1586.41474   1653.51342   1573.11551   1665.37431   1628.65641   1622.09037   1703.29382   1655.36164   1598.18925   1562.04624   
110     1634.13795   1732.10942   1703.58353   1694.12635   1641.61029   1693.59161   1658.60241   1716.06056   1638.50585   1679.34616   
111     1720.30583   1668.61256   1715.70829   1709.81775   1627.10640   1702.37839   1640.42051   1714.85771   1745.11501   1623.60462   
112     1720.26218   1687.74712   1760.16906   1742.27677   1751.35079   1784.53914   1783.34308   1708.21996   1739.03703   1743.78081   
113     1821.00243   1812.55869   1713.40178   1775.99546   1813.25380   1823.83557   1680.48332   1751.59025   1793.27105   1739.98700   
114     1785.31582   1792.23666   1699.36049   1760.78416   1715.81834   1769.81304   1795.48572   1824.59377   1839.74688   1810.01519   
115     1833.50285   1782.69396   1780.37123   1876.44628   1796.22262   1711.20289   1841.16652   1763.49558   1822.63496   1857.74502   
116     1816.48398   1811.70554   1849.12471   1824.80581   1967.55986   1979.93338   1851.88310   1821.29240   1835.65668   1888.00762   
117     1835.37468   1908.03251   1959.85065   1850.54033   1936.91141   1900.91501   1928.36205   1915.86799   1906.54489   1955.38576   
118     1867.95088   1955.83301   1905.66571   1871.13154   1922.16875   1932.59317   2004.56143   1907.45204   1907.13264   1855.67194   
119     1863.41948   1982.41684   1933.73458   2064.90830   1895.90461   1989.45996   1998.95456   1896.46948   1911.24433   1949.78527   
120     1956.86679   1929.57988   1993.02604   2009.07771   1987.84567   2076.35923   2004.29170   1980.82229   2085.20950   2006.38678   
121     2079.92422   1928.00375   2101.47346   2157.85983   2033.13231   2117.41451   2048.53603   1968.36699   2053.09528   1993.38226   
122     2064.36802   2115.31523   2156.47071   2143.01267   2049.20941   2120.39513   2047.26939   2108.77896   2203.88321   2104.57950   
123     2174.59430   2128.59599   2123.31711   2189.95223   2038.88802   2019.89815   2025.96711   2150.99074   2125.68314   2137.75118   
124     2153.49538   2072.90625   2088.33940   2314.44265   2175.89364   2170.55463   2194.61344   2057.07906   2212.91440   2158.42082   
125     2225.33257   2222.38869   2101.29117   2181.92834   2202.65083   2127.08943   2189.54542   2277.38633   2105.92517   2199.47190   
126     2319.63183   2176.21814   2306.90252   2218.10626   2228.62283   2184.92695   2136.49462   2119.25851   2208.88533   2341.87964   
127     2368.69025   2290.96419   2347.15133   2278.18320   2192.04950   2352.97703   2296.55061   2314.83901   2381.65835   2279.34610   
128     2349.62403   2217.45985   2396.33144   2266.92116   2220.15492   2230.05171   2203.54680   2361.89525   2337.50347   2327.45710   
129     2428.51677   2302.67547   2292.69258   2386.11824   2394.26335   2399.13025   2489.45745   2371.28125   2345.83395   2443.82262   
130     2468.76676   2276.21617   2364.15985   2285.54572   2367.58571   2332.92735   2326.87063   2383.81358   2311.52226   2332.73034   
131     2464.53331   2480.92235   2499.97250   2440.57921   2483.79233   2368.93062   2495.19818   2378.23610   2445.54616   2434.60336   
132     2548.14290   2453.10220   2647.08298   2435.32100   2410.63272   2444.91602   2589.21491   2511.93706   2481.34743   2474.73089   
133     2582.60339   2431.85277   2480.67907   2446.75652   2508.17466   2440.83579   2653.39805   2643.85910   2509.95388   2598.76528   
134     2597.57584   2543.48905   2667.59159   2626.38037   2597.40496   2520.39376   2615.51208   2553.32804   2563.07570   2565.48575   
135     2661.49989   2550.11871   2605.23555   2579.74166   2555.09089   2561.49476   2602.75462   2573.83642   2683.10462   2671.79662   
136     2538.47761   2696.55286   2708.92193   2683.20080   2623.79510   2566.84823   2677.80973   2652.38397   2739.96416   2735.65475   
137     2762.98461   2604.20750   2805.79921   2741.74349   2619.94411   2683.98086   2795.04775   2636.50897   2654.99848   2609.74629   
138     2709.24398   2842.04721   2741.60286   2757.05581   2741.83909   2793.43089   2644.11699   2725.16295   2777.41438   2792.37949   
139     2809.28212   2852.93585   2867.19400   2714.25046   2750.34153   2744.00730   2893.89713   2946.89353   2899.40310   2693.00186   
140     2772.27050   2741.37323   2862.91828   2795.32324   3000.53182   2785.36245   2822.83514   2829.38498   2820.04667   2846.95955   
141     2921.10582   2889.42318   2951.84565   2960.33657   2933.54067   2799.33790   2914.75834   2824.36000   2867.66794   2882.78730   
