SLC Damping Ring Gated camera results.  10 e+ verical profiles at I=0.75mA.  
The distance beteeen each pixel on the gated camera is 1 micron.  
Pixel    Pic1(Counts) Pic2(Counts) Pic3(Counts) Pic4(Counts) Pic5(Counts) Pic6(Counts) Pic7(Counts) Pic8(Counts) Pic9(Counts) Pic10(Counts)
  1      120.33145    122.35700    119.74807    110.26151    121.99840    118.29762    115.39652    120.56657    116.24847    113.78211   
  2      121.44638    116.29636    124.26199    120.89926    123.69179    111.53792    114.41426    115.61088    119.88030    112.88563   
  3      117.39862    112.64850    123.81978    120.87096    112.34846    113.61404    111.47319    112.29154    117.00178    122.49408   
  4      118.70771    110.17841    124.96232    114.48618    124.08604    123.97474    121.08541    122.45282    116.50491    113.04608   
  5      119.26397    118.91398    119.47605    116.00901    110.17734    113.60218    124.04507    114.19063    116.34602    117.43747   
  6      119.08275    119.74052    122.23196    121.62823    122.30733    113.25251    120.31461    123.91680    116.69043    121.51478   
  7      112.41275    116.04919    122.64882    124.45672    118.41689    113.24074    120.89039    121.17418    116.13023    114.63339   
  8      119.09497    124.01358    124.65258    118.47274    123.18502    120.80543    118.72561    120.88719    118.23093    112.34367   
  9      116.70468    118.47349    117.72466    112.31398    110.44919    116.06469    110.97041    116.20012    112.98500    113.65263   
 10      112.67608    117.14412    111.34725    123.95623    113.94894    122.36907    115.14764    117.90277    120.17530    115.86564   
 11      118.08844    111.56378    118.05428    117.05896    121.24663    120.42492    116.43673    117.56620    112.14297    123.15243   
 12      111.94886    124.19178    114.15788    116.24642    110.29075    111.21424    115.73340    121.29866    114.85513    110.72136   
 13      111.31179    122.04310    123.31087    121.82012    121.24367    122.43032    119.05819    115.63510    110.07183    119.04681   
 14      121.39256    117.20292    121.54660    113.62625    122.58481    111.64809    122.78989    122.19334    112.04929    113.77706   
 15      116.55252    116.69208    117.95154    117.86317    111.31592    111.28310    120.46276    118.55796    110.09594    118.98868   
 16      117.23885    116.53880    122.11601    122.14240    117.28750    110.95035    120.95663    121.67756    124.09448    119.82307   
 17      115.53446    121.53437    118.85994    111.02660    116.87970    119.13845    122.46688    113.62815    114.26847    118.38821   
 18      122.31058    124.07942    116.54666    113.14455    112.61225    118.23656    114.21212    120.63283    112.76210    124.84104   
 19      117.03788    116.22405    124.74062    118.91128    124.02407    117.20971    110.30425    114.11228    116.08606    110.65353   
 20      115.17831    115.09755    112.33878    117.25990    116.84847    111.40599    114.89997    119.45150    112.02495    115.28924   
 21      121.32000    112.99176    115.92687    113.37221    115.34752    114.67281    112.74286    122.21742    122.65644    124.34704   
 22      120.75229    121.58244    110.09957    115.68849    112.23707    121.15599    119.31786    122.22681    123.07495    110.04327   
 23      120.84171    113.08050    111.89333    114.13426    120.45901    115.67052    116.33508    116.58312    120.88222    117.70645   
 24      114.25406    111.05532    114.36945    112.26519    115.22843    115.52130    122.22113    123.39673    120.49825    111.48167   
 25      117.13907    113.81085    120.39756    119.39546    118.33832    118.36913    111.71550    120.15025    123.49282    110.17401   
 26      117.20753    111.35718    122.38375    119.86611    117.56591    119.34144    114.44172    119.88499    118.57331    119.63779   
 27      110.18860    111.10114    111.57672    114.38196    114.36356    113.55164    114.54024    123.17373    114.58534    114.75309   
 28      119.76200    115.42272    116.77372    114.31670    114.71594    120.40967    114.23240    112.05438    124.77200    118.40502   
 29      122.18218    113.32158    111.19058    123.83476    123.25972    116.68235    112.68662    116.46659    112.36135    115.25334   
 30      120.29614    117.94737    119.67036    112.98526    119.22278    119.39865    114.75092    115.00755    113.81377    117.32493   
 31      122.11183    118.60069    124.77907    117.70738    118.45411    117.37974    115.55839    111.18219    123.88045    119.42263   
 32      117.38568    115.81481    120.99769    122.82587    122.07918    111.49216    124.58600    124.03410    121.30016    110.61389   
 33      119.24514    123.29518    120.88395    121.28822    121.12630    116.43986    111.15160    114.65786    116.20018    114.25554   
 34      117.49051    123.17497    113.27650    120.42222    116.92614    121.06883    114.74539    124.79675    115.49476    124.23902   
 35      111.77238    113.40903    122.04199    122.78787    114.53978    110.19388    120.49274    120.11613    122.20018    123.73142   
 36      114.39508    110.25776    123.58578    112.79247    118.50119    115.32061    123.57895    115.21813    119.92225    111.66664   
 37      117.17851    123.47989    111.16907    118.28940    119.02348    120.68750    113.92816    116.77025    122.64070    116.99344   
 38      115.18322    110.92839    120.00360    117.34051    114.36938    118.18661    120.85477    118.61513    122.82454    110.52865   
 39      111.52443    111.16396    114.42097    123.82500    112.83398    111.74073    118.92789    115.86865    121.69490    113.06540   
 40      111.29946    111.88909    124.31533    117.46915    114.65689    123.02586    111.24375    111.20576    124.25207    117.79599   
 41      110.57430    110.81876    111.69444    110.11553    114.43309    116.48188    110.05117    120.59920    121.23118    119.69326   
 42      115.22243    116.90857    117.14446    111.83224    123.69418    110.90483    115.49508    122.88667    117.81840    120.87516   
 43      117.40589    121.97872    123.76305    117.77340    111.57279    114.76825    116.03323    112.58509    116.41708    122.71016   
 44      122.20570    110.33221    119.38063    123.17982    124.81215    120.91436    115.32082    118.45281    113.36719    110.53296   
 45      121.17161    112.59674    115.16632    116.27250    115.30602    117.57763    124.58536    113.16243    114.80548    117.25088   
 46      112.75153    112.76894    113.45393    124.04314    117.61497    116.87492    118.97699    112.43115    120.63053    112.69477   
 47      116.85096    118.03955    123.18334    117.92014    121.43937    118.12446    115.37636    113.33352    122.18651    119.05035   
 48      113.56416    116.00886    116.58861    120.85429    124.48695    119.48684    117.46537    118.66247    118.35134    121.84442   
 49      122.20489    123.94500    114.95088    114.41743    113.63233    123.05900    116.13840    110.12321    120.10693    115.93658   
 50      110.42015    111.30805    122.09830    120.30024    120.04948    123.16551    122.37253    112.47799    111.49187    113.91428   
 51      110.66016    122.60290    121.08473    119.33914    117.70249    118.22949    113.00101    119.10495    116.43981    124.55961   
 52      115.07622    113.82031    118.60206    124.25329    124.68719    115.90817    124.43556    117.97874    110.41775    116.88290   
 53      122.52805    115.05033    114.52653    114.83818    113.48653    116.45835    120.12026    110.26317    118.07287    123.18777   
 54      119.44930    116.58101    114.77891    123.15535    115.65079    122.68742    121.16966    117.02139    118.25913    116.54643   
 55      114.62141    122.71638    119.52804    122.10129    110.88382    122.80858    120.88720    116.02723    112.93370    121.14058   
 56      116.36810    122.64572    118.54412    119.95037    113.49473    119.12131    118.39216    114.17957    118.77135    124.92496   
 57      117.14302    123.08399    119.73361    116.01541    120.32167    121.20084    124.60934    123.62989    120.68524    121.06736   
 58      113.03121    117.99659    120.43487    112.52729    122.06772    124.94415    116.69499    122.36696    110.77939    121.71041   
 59      116.72823    112.98284    118.77630    121.88292    120.87192    114.13460    115.09990    114.50986    114.68128    121.83757   
 60      110.92973    122.88667    121.29864    114.68471    122.14319    116.15927    119.14104    119.56244    113.52521    118.37721   
 61      113.21750    110.48499    115.45629    118.10472    123.58667    111.83537    120.95266    122.66248    123.88025    119.49037   
 62      120.31345    110.36363    124.22388    122.07366    111.44226    121.40113    114.89477    119.66507    121.72481    117.23811   
 63      114.27336    123.60938    118.78693    122.21625    110.89890    124.85586    123.39893    111.84377    120.91816    118.43913   
 64      118.86403    121.14486    123.78733    118.16743    117.73709    121.99671    121.42003    110.91655    122.50990    119.39994   
 65      116.53619    124.54044    122.80049    120.37171    117.62886    113.74953    115.86724    119.33688    113.54645    117.22921   
 66      112.30266    117.32715    119.70031    123.37050    114.34549    123.27497    113.17763    119.65316    112.61566    110.22402   
 67      118.48865    121.28010    115.52814    124.29535    122.27162    120.57708    123.29736    116.99034    113.42540    113.88997   
 68      110.27802    111.24995    124.85320    120.87904    117.58198    110.22975    113.67809    121.32815    123.09009    119.94508   
 69      118.15624    118.63194    115.91467    124.55583    116.44318    110.31471    121.30399    123.32987    118.52914    113.29239   
 70      119.44565    116.89790    118.10491    118.61170    117.62391    119.63104    122.66097    123.49090    120.04283    124.93889   
 71      116.91894    122.40020    117.04303    116.12394    117.21551    110.65268    119.87828    119.91220    113.91966    118.86937   
 72      118.76051    121.86903    124.49103    111.22979    117.96281    124.75321    123.10111    122.12609    116.00118    120.29418   
 73      114.31268    122.60565    124.00327    116.44558    122.14504    117.82435    117.76232    112.88374    114.92050    123.66438   
 74      113.28468    123.84729    111.63150    114.74847    114.45909    118.44047    117.53038    112.03103    114.37961    124.74508   
 75      113.06359    122.89942    122.45379    112.78465    116.34464    118.81781    117.10637    112.57754    123.52315    119.48153   
 76      110.55371    122.57179    118.20370    117.72537    114.97974    123.58613    120.08767    123.68820    123.36286    111.28898   
 77      113.11661    122.14859    119.21194    124.81780    117.63068    112.42372    110.74035    113.91808    111.20371    112.00245   
 78      110.31058    115.41658    120.86174    114.25806    118.65065    114.24196    116.43805    123.03092    118.05464    122.04856   
 79      118.92128    114.99200    122.00007    123.49771    114.93381    122.79498    113.46091    112.43358    117.05864    110.71780   
 80      123.34153    122.74025    124.74385    115.34792    113.07644    122.13371    111.95455    123.31118    121.63324    114.89653   
 81      110.41756    116.69647    123.09274    120.33434    116.49485    116.22419    120.31338    122.18502    114.75755    117.26162   
 82      113.13857    113.98506    112.88239    115.22963    118.30925    119.35324    117.08495    114.96750    117.27728    117.08647   
 83      112.08423    120.83736    113.19281    119.01590    114.08820    117.94534    117.35613    121.88430    121.18399    120.93550   
 84      117.08880    115.64321    119.60758    110.82631    116.53086    112.81040    111.21011    110.33332    116.72855    119.39012   
 85      114.33511    117.88994    120.57755    113.37599    119.36383    117.14293    114.87771    122.56147    118.94797    124.31505   
 86      110.02778    120.95137    124.60411    124.13540    111.95595    122.99984    114.09722    110.47024    113.22086    122.39574   
 87      116.64788    115.03899    119.35539    117.85956    116.67919    123.66612    115.92446    122.36155    119.47966    115.15256   
 88      112.34933    115.67918    114.62282    122.78146    118.85079    115.49317    111.07633    118.15438    117.95963    120.73520   
 89      123.28921    119.51859    118.46243    120.80202    111.27979    120.65601    110.47927    110.89818    117.33569    114.98916   
 90      119.05337    121.62608    116.21394    119.42221    112.26167    111.93578    112.23074    119.74438    111.42714    111.12927   
 91      122.44154    122.15988    118.21551    115.76804    116.88610    113.11098    118.35997    121.92127    117.83810    122.50721   
 92      116.04665    116.03354    122.95862    110.85059    113.12701    118.97790    115.22645    122.37356    111.98583    111.46447   
 93      112.16662    124.15975    120.60192    111.40831    121.62106    117.13733    118.29018    115.16096    121.92818    115.65929   
 94      112.69275    120.68364    120.36178    110.93228    118.89006    116.04042    123.90282    119.41450    113.78469    118.22781   
 95      123.34480    118.65190    111.56222    116.74742    113.32462    115.63625    111.84710    118.97853    112.92684    118.06561   
 96      115.43994    116.03782    110.46637    124.03681    119.27322    113.43841    115.66771    112.28048    114.22076    115.62614   
 97      118.53989    122.35336    122.10413    114.11875    114.69978    115.45761    111.46948    119.96768    121.70107    123.46312   
 98      111.75547    118.46708    114.76821    119.01817    119.83121    110.91527    117.63572    111.12057    116.67689    113.83729   
 99      123.75736    112.48793    120.70753    122.45918    123.29019    124.52941    114.88292    115.86149    111.24959    118.56384   
100      118.15446    111.94573    113.50503    112.83057    117.94747    112.41565    121.94058    113.19110    111.82990    112.18717   
101      110.78432    118.53807    121.20035    124.48750    115.28783    122.71602    121.57856    121.22636    120.75356    119.89075   
102      124.01829    115.81988    111.22132    119.49946    122.27637    113.56421    112.78476    119.21870    110.95847    121.05185   
103      121.24482    121.68491    114.63265    114.36779    123.21083    122.68243    119.12049    122.15666    120.63165    119.15915   
104      114.56062    111.31240    116.56102    116.62557    119.57246    121.86406    124.21130    111.13335    113.19276    118.22026   
105      114.66526    114.83947    120.32700    115.27350    113.86453    110.33412    118.48658    113.02913    119.78949    111.21802   
106      122.31458    111.00655    123.47812    123.95420    122.98821    121.02550    124.92910    112.72976    111.96535    110.44089   
107      118.95141    112.12209    118.67569    125.10749    112.10472    116.19651    111.85577    119.46582    123.54993    122.91219   
108      116.52736    111.34868    123.99739    116.71633    110.74564    117.60946    121.73891    113.39973    120.79741    115.43223   
109      122.78653    120.23342    122.26037    119.09654    118.03008    117.33796    121.58847    110.13974    110.81235    119.33475   
110      121.99526    121.55256    115.93003    116.00367    118.74799    119.66384    120.96772    110.26157    117.53450    118.53588   
111      114.17086    114.10921    121.98474    118.35164    115.23836    112.55963    111.35157    114.75673    112.23062    117.23652   
112      120.35792    116.15559    118.01747    122.45088    122.41527    117.86523    116.41950    118.39600    115.35951    119.82982   
113      119.28282    121.89508    119.56422    113.71207    117.79477    113.18635    120.62665    125.63674    115.07111    119.16266   
114      111.04313    123.07327    110.62398    122.63832    125.11394    119.47933    121.57089    118.58097    119.09107    112.75355   
115      120.33480    110.63780    111.64617    119.67317    111.19260    115.10435    116.55825    125.50336    118.85391    119.21546   
116      116.79492    117.83738    110.70766    124.07745    120.60724    113.50662    120.60228    118.03790    123.76809    117.64614   
117      116.01636    123.45181    126.03632    125.16739    114.33106    119.49577    114.77964    112.29571    112.13078    123.16703   
118      114.95848    110.80470    118.97987    115.72584    111.29156    116.75701    124.41159    120.83912    117.55945    111.72556   
119      123.10613    116.74030    112.44389    124.89165    113.99891    125.38764    115.35021    117.61481    110.92167    116.88857   
120      115.90864    125.03824    120.51243    113.44976    124.40922    112.90673    124.96696    113.10546    125.57136    124.25162   
121      110.90137    115.08425    120.61666    123.45954    120.40287    119.58932    123.01765    123.94036    121.20013    122.24574   
122      113.65633    122.91500    111.32782    115.53710    114.45410    115.58219    117.42877    126.75864    116.62770    122.24567   
123      122.51417    125.46688    119.38864    121.35902    120.57025    121.20936    124.49255    117.43596    115.29919    112.41495   
124      119.65977    122.34856    115.83772    125.16788    111.24857    117.02519    122.76852    124.43863    123.72520    117.47599   
125      115.51796    125.65256    111.22272    114.83333    112.41128    125.09001    125.99779    126.24985    119.37666    114.10415   
126      126.59668    118.13685    117.83633    117.59467    119.61490    120.10551    125.18330    115.68357    121.97643    113.48536   
127      124.88208    116.01956    122.40389    111.58390    119.84220    117.49389    125.37521    121.44103    113.37596    122.02783   
128      114.39362    114.17208    127.40230    124.58835    118.54156    127.71786    121.90239    119.60444    120.08661    123.20256   
129      114.52159    118.66655    123.66943    119.37084    112.76721    116.89038    112.76336    119.21228    114.33108    113.20422   
130      125.29671    121.03062    122.82294    117.37845    129.63806    118.74885    117.61420    120.81850    121.14260    119.06660   
131      117.99176    122.69522    124.84971    117.65750    119.89864    116.59625    124.35593    119.08700    125.77792    118.25318   
132      115.36594    119.89432    122.09583    121.32909    121.36744    117.81391    116.38825    114.43036    123.02656    115.52735   
133      126.40456    130.33200    118.85701    125.09801    119.57937    123.76259    123.51196    126.89391    127.73661    118.66970   
134      118.57819    120.11086    124.82670    125.03506    122.88011    122.74618    121.80886    126.71091    121.14434    116.40261   
135      124.53189    121.18136    128.07829    124.34946    118.55554    127.42719    121.37497    120.57043    124.05459    128.76988   
136      124.98718    121.65063    125.35154    125.44103    114.73558    126.40478    114.93948    123.70051    115.48400    125.83362   
137      131.14591    123.06641    128.68934    121.23516    129.59768    120.42723    124.62916    120.97972    127.28980    130.82822   
138      130.13511    129.85569    118.42434    134.15107    129.52970    129.57787    124.78355    125.33425    123.09446    133.81140   
139      135.87450    127.15049    120.41914    126.48780    123.43634    124.26606    121.29940    123.15800    119.87663    131.32433   
140      124.11596    115.70040    123.03645    126.62684    129.42326    131.94234    130.40458    125.61127    123.55406    127.70408   
141      130.70289    128.00312    126.98163    122.12602    124.08293    121.10572    117.52455    134.44420    120.13402    121.74802   
